   Elapsed time	  ECG I
      (seconds)	   (mV)
          0.000	 -0.085
          0.002	 -0.080
          0.004	 -0.070
          0.006	 -0.075
          0.008	 -0.095
          0.010	 -0.090
          0.012	 -0.100
          0.014	 -0.100
          0.016	 -0.100
          0.018	 -0.085
          0.020	 -0.060
          0.022	 -0.045
          0.024	 -0.055
          0.026	 -0.060
          0.028	 -0.070
          0.030	 -0.080
          0.032	 -0.085
          0.034	 -0.080
          0.036	 -0.070
          0.038	 -0.040
          0.040	 -0.050
          0.042	 -0.045
          0.044	 -0.040
          0.046	 -0.040
          0.048	 -0.055
          0.050	 -0.060
          0.052	 -0.055
          0.054	 -0.055
          0.056	 -0.055
          0.058	 -0.045
          0.060	 -0.040
          0.062	 -0.045
          0.064	 -0.040
          0.066	 -0.030
          0.068	 -0.035
          0.070	 -0.045
          0.072	 -0.055
          0.074	 -0.055
          0.076	 -0.050
          0.078	 -0.020
          0.080	 -0.015
          0.082	 -0.010
          0.084	  0.005
          0.086	  0.000
          0.088	 -0.005
          0.090	 -0.025
          0.092	 -0.035
          0.094	 -0.030
          0.096	 -0.030
          0.098	 -0.015
          0.100	 -0.005
          0.102	  0.000
          0.104	  0.010
          0.106	  0.020
          0.108	  0.000
          0.110	 -0.005
          0.112	  0.005
          0.114	  0.005
          0.116	  0.010
          0.118	  0.025
          0.120	  0.040
          0.122	  0.055
          0.124	  0.060
          0.126	  0.045
          0.128	  0.040
          0.130	  0.045
          0.132	  0.040
          0.134	  0.040
          0.136	  0.070
          0.138	  0.075
          0.140	  0.090
          0.142	  0.105
          0.144	  0.105
          0.146	  0.115
          0.148	  0.105
          0.150	  0.100
          0.152	  0.100
          0.154	  0.095
          0.156	  0.125
          0.158	  0.155
          0.160	  0.160
          0.162	  0.160
          0.164	  0.175
          0.166	  0.175
          0.168	  0.155
          0.170	  0.160
          0.172	  0.150
          0.174	  0.150
          0.176	  0.160
          0.178	  0.180
          0.180	  0.190
          0.182	  0.190
          0.184	  0.200
          0.186	  0.190
          0.188	  0.180
          0.190	  0.175
          0.192	  0.165
          0.194	  0.160
          0.196	  0.165
          0.198	  0.155
          0.200	  0.165
          0.202	  0.165
          0.204	  0.170
          0.206	  0.145
          0.208	  0.135
          0.210	  0.110
          0.212	  0.090
          0.214	  0.070
          0.216	  0.075
          0.218	  0.085
          0.220	  0.085
          0.222	  0.070
          0.224	  0.070
          0.226	  0.050
          0.228	  0.040
          0.230	  0.025
          0.232	  0.005
          0.234	 -0.005
          0.236	  0.000
          0.238	  0.000
          0.240	  0.005
          0.242	  0.010
          0.244	  0.000
          0.246	  0.010
          0.248	  0.015
          0.250	  0.030
          0.252	  0.035
          0.254	  0.045
          0.256	  0.065
          0.258	  0.085
          0.260	  0.090
          0.262	  0.120
          0.264	  0.115
          0.266	  0.090
          0.268	  0.085
          0.270	  0.070
          0.272	  0.080
          0.274	  0.080
          0.276	  0.090
          0.278	  0.095
          0.280	  0.110
          0.282	  0.115
          0.284	  0.130
          0.286	  0.115
          0.288	  0.100
          0.290	  0.095
          0.292	  0.095
          0.294	  0.095
          0.296	  0.100
          0.298	  0.110
          0.300	  0.120
          0.302	  0.125
          0.304	  0.140
          0.306	  0.135
          0.308	  0.115
          0.310	  0.115
          0.312	  0.115
          0.314	  0.115
          0.316	  0.125
          0.318	  0.130
          0.320	  0.125
          0.322	  0.140
          0.324	  0.140
          0.326	  0.140
          0.328	  0.130
          0.330	  0.105
          0.332	  0.100
          0.334	  0.100
          0.336	  0.130
          0.338	  0.140
          0.340	  0.135
          0.342	  0.150
          0.344	  0.145
          0.346	  0.130
          0.348	  0.125
          0.350	  0.125
          0.352	  0.115
          0.354	  0.120
          0.356	  0.125
          0.358	  0.140
          0.360	  0.140
          0.362	  0.150
          0.364	  0.145
          0.366	  0.140
          0.368	  0.135
          0.370	  0.140
          0.372	  0.125
          0.374	  0.125
          0.376	  0.135
          0.378	  0.145
          0.380	  0.145
          0.382	  0.140
          0.384	  0.135
          0.386	  0.120
          0.388	  0.120
          0.390	  0.110
          0.392	  0.115
          0.394	  0.120
          0.396	  0.135
          0.398	  0.135
          0.400	  0.130
          0.402	  0.135
          0.404	  0.130
          0.406	  0.110
          0.408	  0.110
          0.410	  0.110
          0.412	  0.105
          0.414	  0.115
          0.416	  0.125
          0.418	  0.130
          0.420	  0.115
          0.422	  0.120
          0.424	  0.115
          0.426	  0.105
          0.428	  0.100
          0.430	  0.105
          0.432	  0.090
          0.434	  0.100
          0.436	  0.105
          0.438	  0.110
          0.440	  0.120
          0.442	  0.135
          0.444	  0.120
          0.446	  0.110
          0.448	  0.095
          0.450	  0.100
          0.452	  0.095
          0.454	  0.100
          0.456	  0.110
          0.458	  0.110
          0.460	  0.115
          0.462	  0.115
          0.464	  0.095
          0.466	  0.080
          0.468	  0.075
          0.470	  0.070
          0.472	  0.070
          0.474	  0.075
          0.476	  0.090
          0.478	  0.085
          0.480	  0.100
          0.482	  0.125
          0.484	  0.110
          0.486	  0.105
          0.488	  0.075
          0.490	  0.080
          0.492	  0.065
          0.494	  0.075
          0.496	  0.080
          0.498	  0.090
          0.500	  0.100
          0.502	  0.115
          0.504	  0.105
          0.506	  0.090
          0.508	  0.085
          0.510	  0.090
          0.512	  0.085
          0.514	  0.095
          0.516	  0.110
          0.518	  0.135
          0.520	  0.130
          0.522	  0.135
          0.524	  0.125
          0.526	  0.120
          0.528	  0.110
          0.530	  0.105
          0.532	  0.095
          0.534	  0.110
          0.536	  0.140
          0.538	  0.135
          0.540	  0.140
          0.542	  0.140
          0.544	  0.130
          0.546	  0.125
          0.548	  0.120
          0.550	  0.105
          0.552	  0.100
          0.554	  0.120
          0.556	  0.150
          0.558	  0.160
          0.560	  0.160
          0.562	  0.170
          0.564	  0.160
          0.566	  0.120
          0.568	  0.115
          0.570	  0.115
          0.572	  0.095
          0.574	  0.095
          0.576	  0.100
          0.578	  0.095
          0.580	  0.090
          0.582	  0.090
          0.584	  0.085
          0.586	  0.055
          0.588	  0.065
          0.590	  0.060
          0.592	  0.065
          0.594	  0.075
          0.596	  0.080
          0.598	  0.080
          0.600	  0.095
          0.602	  0.075
          0.604	  0.055
          0.606	  0.050
          0.608	  0.045
          0.610	  0.035
          0.612	  0.045
          0.614	  0.045
          0.616	  0.055
          0.618	  0.060
          0.620	  0.060
          0.622	  0.060
          0.624	  0.060
          0.626	  0.050
          0.628	  0.035
          0.630	  0.020
          0.632	  0.025
          0.634	  0.035
          0.636	  0.045
          0.638	  0.055
          0.640	  0.060
          0.642	  0.055
          0.644	  0.035
          0.646	  0.025
          0.648	  0.030
          0.650	  0.020
          0.652	  0.030
          0.654	  0.050
          0.656	  0.030
          0.658	  0.040
          0.660	  0.050
          0.662	  0.040
          0.664	  0.025
          0.666	  0.000
          0.668	 -0.010
          0.670	 -0.025
          0.672	 -0.030
          0.674	 -0.025
          0.676	 -0.015
          0.678	 -0.005
          0.680	  0.030
          0.682	  0.065
          0.684	  0.110
          0.686	  0.160
          0.688	  0.200
          0.690	  0.255
          0.692	  0.335
          0.694	  0.425
          0.696	  0.530
          0.698	  0.645
          0.700	  0.720
          0.702	  0.735
          0.704	  0.685
          0.706	  0.630
          0.708	  0.570
          0.710	  0.485
          0.712	  0.410
          0.714	  0.335
          0.716	  0.230
          0.718	  0.100
          0.720	  0.010
          0.722	 -0.060
          0.724	 -0.100
          0.726	 -0.100
          0.728	 -0.090
          0.730	 -0.085
          0.732	 -0.060
          0.734	 -0.020
          0.736	  0.010
          0.738	  0.035
          0.740	  0.040
          0.742	  0.035
          0.744	  0.015
          0.746	 -0.005
          0.748	 -0.020
          0.750	 -0.025
          0.752	 -0.010
          0.754	  0.000
          0.756	  0.005
          0.758	  0.025
          0.760	  0.025
          0.762	  0.020
          0.764	  0.000
          0.766	  0.005
          0.768	 -0.015
          0.770	 -0.020
          0.772	 -0.010
          0.774	 -0.010
          0.776	  0.000
          0.778	  0.010
          0.780	  0.000
          0.782	  0.005
          0.784	  0.005
          0.786	 -0.005
          0.788	  0.000
          0.790	 -0.010
          0.792	  0.000
          0.794	  0.015
          0.796	  0.020
          0.798	  0.025
          0.800	  0.040
          0.802	  0.025
          0.804	  0.010
          0.806	  0.000
          0.808	 -0.005
          0.810	 -0.005
          0.812	  0.005
          0.814	  0.025
          0.816	  0.025
          0.818	  0.030
          0.820	  0.025
          0.822	  0.010
          0.824	  0.020
          0.826	  0.005
          0.828	  0.010
          0.830	  0.005
          0.832	  0.015
          0.834	  0.020
          0.836	  0.035
          0.838	  0.040
          0.840	  0.050
          0.842	  0.050
          0.844	  0.045
          0.846	  0.040
          0.848	  0.025
          0.850	  0.030
          0.852	  0.030
          0.854	  0.040
          0.856	  0.045
          0.858	  0.055
          0.860	  0.060
          0.862	  0.065
          0.864	  0.065
          0.866	  0.070
          0.868	  0.070
          0.870	  0.065
          0.872	  0.080
          0.874	  0.095
          0.876	  0.105
          0.878	  0.105
          0.880	  0.120
          0.882	  0.115
          0.884	  0.115
          0.886	  0.110
          0.888	  0.100
          0.890	  0.100
          0.892	  0.115
          0.894	  0.130
          0.896	  0.150
          0.898	  0.155
          0.900	  0.160
          0.902	  0.150
          0.904	  0.160
          0.906	  0.165
          0.908	  0.155
          0.910	  0.160
          0.912	  0.175
          0.914	  0.200
          0.916	  0.205
          0.918	  0.210
          0.920	  0.205
          0.922	  0.195
          0.924	  0.185
          0.926	  0.180
          0.928	  0.180
          0.930	  0.180
          0.932	  0.180
          0.934	  0.200
          0.936	  0.205
          0.938	  0.205
          0.940	  0.195
          0.942	  0.170
          0.944	  0.150
          0.946	  0.135
          0.948	  0.130
          0.950	  0.125
          0.952	  0.130
          0.954	  0.115
          0.956	  0.130
          0.958	  0.130
          0.960	  0.115
          0.962	  0.095
          0.964	  0.080
          0.966	  0.070
          0.968	  0.055
          0.970	  0.030
          0.972	  0.015
          0.974	  0.025
          0.976	  0.025
          0.978	  0.020
          0.980	  0.010
          0.982	 -0.005
          0.984	 -0.020
          0.986	 -0.025
          0.988	 -0.035
          0.990	 -0.030
          0.992	 -0.010
          0.994	  0.000
          0.996	 -0.010
          0.998	 -0.005
          1.000	 -0.010
          1.002	 -0.030
          1.004	 -0.040
          1.006	 -0.055
          1.008	 -0.065
          1.010	 -0.055
          1.012	 -0.040
          1.014	 -0.045
          1.016	 -0.025
          1.018	 -0.035
          1.020	 -0.030
          1.022	 -0.050
          1.024	 -0.055
          1.026	 -0.060
          1.028	 -0.060
          1.030	 -0.045
          1.032	 -0.045
          1.034	 -0.035
          1.036	 -0.020
          1.038	 -0.030
          1.040	 -0.030
          1.042	 -0.050
          1.044	 -0.055
          1.046	 -0.055
          1.048	 -0.060
          1.050	 -0.055
          1.052	 -0.050
          1.054	 -0.040
          1.056	 -0.055
          1.058	 -0.030
          1.060	 -0.055
          1.062	 -0.050
          1.064	 -0.050
          1.066	 -0.060
          1.068	 -0.060
          1.070	 -0.045
          1.072	 -0.040
          1.074	 -0.040
          1.076	 -0.040
          1.078	 -0.040
          1.080	 -0.050
          1.082	 -0.055
          1.084	 -0.055
          1.086	 -0.060
          1.088	 -0.055
          1.090	 -0.030
          1.092	 -0.030
          1.094	 -0.025
          1.096	 -0.020
          1.098	 -0.015
          1.100	 -0.025
          1.102	 -0.035
          1.104	 -0.045
          1.106	 -0.050
          1.108	 -0.055
          1.110	 -0.045
          1.112	 -0.040
          1.114	 -0.020
          1.116	 -0.015
          1.118	 -0.010
          1.120	 -0.015
          1.122	 -0.020
          1.124	 -0.030
          1.126	 -0.035
          1.128	 -0.040
          1.130	 -0.030
          1.132	 -0.030
          1.134	 -0.025
          1.136	 -0.015
          1.138	 -0.015
          1.140	 -0.025
          1.142	 -0.020
          1.144	 -0.035
          1.146	 -0.040
          1.148	 -0.045
          1.150	 -0.045
          1.152	 -0.030
          1.154	 -0.025
          1.156	 -0.005
          1.158	 -0.010
          1.160	 -0.030
          1.162	 -0.030
          1.164	 -0.035
          1.166	 -0.050
          1.168	 -0.060
          1.170	 -0.040
          1.172	 -0.040
          1.174	 -0.030
          1.176	 -0.020
          1.178	 -0.025
          1.180	 -0.040
          1.182	 -0.045
          1.184	 -0.020
          1.186	 -0.050
          1.188	 -0.055
          1.190	 -0.040
          1.192	 -0.030
          1.194	 -0.035
          1.196	 -0.015
          1.198	 -0.020
          1.200	 -0.040
          1.202	 -0.050
          1.204	 -0.055
          1.206	 -0.060
          1.208	 -0.060
          1.210	 -0.055
          1.212	 -0.040
          1.214	 -0.040
          1.216	 -0.035
          1.218	 -0.020
          1.220	 -0.035
          1.222	 -0.045
          1.224	 -0.050
          1.226	 -0.070
          1.228	 -0.070
          1.230	 -0.050
          1.232	 -0.045
          1.234	 -0.035
          1.236	 -0.035
          1.238	 -0.035
          1.240	 -0.045
          1.242	 -0.055
          1.244	 -0.050
          1.246	 -0.050
          1.248	 -0.040
          1.250	 -0.035
          1.252	 -0.025
          1.254	 -0.005
          1.256	 -0.010
          1.258	 -0.025
          1.260	 -0.040
          1.262	 -0.030
          1.264	 -0.035
          1.266	 -0.040
          1.268	 -0.040
          1.270	 -0.025
          1.272	 -0.015
          1.274	 -0.010
          1.276	  0.015
          1.278	 -0.005
          1.280	 -0.005
          1.282	 -0.015
          1.284	 -0.020
          1.286	 -0.025
          1.288	 -0.025
          1.290	 -0.010
          1.292	  0.005
          1.294	  0.015
          1.296	  0.020
          1.298	  0.015
          1.300	  0.005
          1.302	  0.005
          1.304	  0.000
          1.306	  0.000
          1.308	  0.000
          1.310	  0.000
          1.312	  0.005
          1.314	  0.020
          1.316	  0.030
          1.318	  0.020
          1.320	 -0.010
          1.322	 -0.025
          1.324	 -0.035
          1.326	 -0.055
          1.328	 -0.050
          1.330	 -0.045
          1.332	 -0.040
          1.334	 -0.045
          1.336	 -0.025
          1.338	 -0.035
          1.340	 -0.060
          1.342	 -0.060
          1.344	 -0.070
          1.346	 -0.080
          1.348	 -0.065
          1.350	 -0.055
          1.352	 -0.050
          1.354	 -0.050
          1.356	 -0.035
          1.358	 -0.055
          1.360	 -0.055
          1.362	 -0.060
          1.364	 -0.065
          1.366	 -0.065
          1.368	 -0.060
          1.370	 -0.065
          1.372	 -0.065
          1.374	 -0.065
          1.376	 -0.065
          1.378	 -0.065
          1.380	 -0.080
          1.382	 -0.085
          1.384	 -0.080
          1.386	 -0.100
          1.388	 -0.090
          1.390	 -0.080
          1.392	 -0.060
          1.394	 -0.045
          1.396	 -0.045
          1.398	 -0.055
          1.400	 -0.060
          1.402	 -0.085
          1.404	 -0.085
          1.406	 -0.100
          1.408	 -0.100
          1.410	 -0.080
          1.412	 -0.075
          1.414	 -0.070
          1.416	 -0.075
          1.418	 -0.095
          1.420	 -0.105
          1.422	 -0.115
          1.424	 -0.140
          1.426	 -0.155
          1.428	 -0.135
          1.430	 -0.105
          1.432	 -0.045
          1.434	  0.020
          1.436	  0.075
          1.438	  0.125
          1.440	  0.170
          1.442	  0.225
          1.444	  0.275
          1.446	  0.390
          1.448	  0.515
          1.450	  0.640
          1.452	  0.690
          1.454	  0.660
          1.456	  0.615
          1.458	  0.555
          1.460	  0.485
          1.462	  0.390
          1.464	  0.305
          1.466	  0.195
          1.468	  0.085
          1.470	 -0.030
          1.472	 -0.115
          1.474	 -0.155
          1.476	 -0.145
          1.478	 -0.125
          1.480	 -0.115
          1.482	 -0.110
          1.484	 -0.085
          1.486	 -0.050
          1.488	 -0.055
          1.490	 -0.030
          1.492	 -0.035
          1.494	 -0.045
          1.496	 -0.040
          1.498	 -0.040
          1.500	 -0.065
          1.502	 -0.070
          1.504	 -0.080
          1.506	 -0.075
          1.508	 -0.070
          1.510	 -0.060
          1.512	 -0.050
          1.514	 -0.030
          1.516	 -0.045
          1.518	 -0.045
          1.520	 -0.055
          1.522	 -0.060
          1.524	 -0.055
          1.526	 -0.060
          1.528	 -0.040
          1.530	 -0.035
          1.532	 -0.025
          1.534	 -0.010
          1.536	 -0.025
          1.538	 -0.045
          1.540	 -0.050
          1.542	 -0.055
          1.544	 -0.050
          1.546	 -0.055
          1.548	 -0.030
          1.550	 -0.025
          1.552	 -0.020
          1.554	 -0.010
          1.556	 -0.010
          1.558	 -0.020
          1.560	 -0.030
          1.562	 -0.025
          1.564	 -0.020
          1.566	 -0.015
          1.568	  0.005
          1.570	  0.020
          1.572	  0.025
          1.574	  0.025
          1.576	  0.015
          1.578	  0.005
          1.580	 -0.010
          1.582	 -0.010
          1.584	 -0.010
          1.586	  0.010
          1.588	  0.015
          1.590	  0.025
          1.592	  0.045
          1.594	  0.060
          1.596	  0.065
          1.598	  0.050
          1.600	  0.040
          1.602	  0.045
          1.604	  0.040
          1.606	  0.045
          1.608	  0.045
          1.610	  0.060
          1.612	  0.065
          1.614	  0.070
          1.616	  0.065
          1.618	  0.065
          1.620	  0.065
          1.622	  0.065
          1.624	  0.075
          1.626	  0.080
          1.628	  0.100
          1.630	  0.115
          1.632	  0.125
          1.634	  0.130
          1.636	  0.140
          1.638	  0.140
          1.640	  0.150
          1.642	  0.135
          1.644	  0.130
          1.646	  0.140
          1.648	  0.170
          1.650	  0.175
          1.652	  0.190
          1.654	  0.200
          1.656	  0.205
          1.658	  0.190
          1.660	  0.200
